TITLE	
DATA TYPE	
ORIGIN	JASCO
OWNER	
DATE	23/05/04
TIME	17:27:46
SPECTROMETER/DATA SYSTEM	JASCO Corp., V-550, Rev. 1.00
RESOLUTION	
DELTAX	-1
XUNITS	NANOMETERS
YUNITS	ABSORBANCE
FIRSTX	700.0000
LASTX	300.0000
NPOINTS	401
FIRSTY	0.01570
MAXY	0.08788
MINY	0.01168
XYDATA
700.0000	0.0157
699.0000	0.01496
698.0000	0.01541
697.0000	0.01572
696.0000	0.01583
695.0000	0.0162
694.0000	0.01643
693.0000	0.01673
692.0000	0.01698
691.0000	0.01688
690.0000	0.01693
689.0000	0.01696
688.0000	0.01676
687.0000	0.01658
686.0000	0.01635
685.0000	0.01609
684.0000	0.016
683.0000	0.01576
682.0000	0.01547
681.0000	0.01515
680.0000	0.01501
679.0000	0.01522
678.0000	0.01524
677.0000	0.01538
676.0000	0.01537
675.0000	0.0156
674.0000	0.01586
673.0000	0.01608
672.0000	0.01628
671.0000	0.01642
670.0000	0.01676
669.0000	0.01702
668.0000	0.01714
667.0000	0.01734
666.0000	0.01755
665.0000	0.01779
664.0000	0.01782
663.0000	0.01795
662.0000	0.0185
661.0000	0.01897
660.0000	0.01935
659.0000	0.02001
658.0000	0.02045
657.0000	0.02103
656.0000	0.02173
655.0000	0.02215
654.0000	0.02278
653.0000	0.02335
652.0000	0.0235
651.0000	0.02381
650.0000	0.02422
649.0000	0.02444
648.0000	0.02458
647.0000	0.02473
646.0000	0.02494
645.0000	0.02516
644.0000	0.02526
643.0000	0.02559
642.0000	0.02582
641.0000	0.02608
640.0000	0.02671
639.0000	0.02724
638.0000	0.02748
637.0000	0.02787
636.0000	0.02853
635.0000	0.02911
634.0000	0.02973
633.0000	0.0304
632.0000	0.03095
631.0000	0.03151
630.0000	0.03219
629.0000	0.03271
628.0000	0.03306
627.0000	0.03372
626.0000	0.03435
625.0000	0.03484
624.0000	0.03515
623.0000	0.03546
622.0000	0.036
621.0000	0.03685
620.0000	0.03734
619.0000	0.03796
618.0000	0.0386
617.0000	0.03947
616.0000	0.03997
615.0000	0.04037
614.0000	0.04098
613.0000	0.04133
612.0000	0.04174
611.0000	0.04228
610.0000	0.04268
609.0000	0.04346
608.0000	0.04419
607.0000	0.04502
606.0000	0.04551
605.0000	0.0461
604.0000	0.04653
603.0000	0.04714
602.0000	0.04779
601.0000	0.0481
600.0000	0.04868
599.0000	0.04922
598.0000	0.05008
597.0000	0.05079
596.0000	0.05116
595.0000	0.05189
594.0000	0.05241
593.0000	0.05288
592.0000	0.05341
591.0000	0.05414
590.0000	0.05515
589.0000	0.05634
588.0000	0.05725
587.0000	0.0578
586.0000	0.05836
585.0000	0.05867
584.0000	0.05916
583.0000	0.05953
582.0000	0.05955
581.0000	0.05972
580.0000	0.05979
579.0000	0.06007
578.0000	0.06003
577.0000	0.05985
576.0000	0.05984
575.0000	0.05981
574.0000	0.05967
573.0000	0.05973
572.0000	0.05983
571.0000	0.05985
570.0000	0.05984
569.0000	0.05966
568.0000	0.05948
567.0000	0.05936
566.0000	0.05931
565.0000	0.05919
564.0000	0.05911
563.0000	0.05891
562.0000	0.05881
561.0000	0.0589
560.0000	0.05865
559.0000	0.05836
558.0000	0.05803
557.0000	0.05782
556.0000	0.05755
555.0000	0.05695
554.0000	0.05649
553.0000	0.05621
552.0000	0.05598
551.0000	0.05561
550.0000	0.05511
549.0000	0.05439
548.0000	0.05381
547.0000	0.0532
546.0000	0.05256
545.0000	0.05204
544.0000	0.05153
543.0000	0.051
542.0000	0.05039
541.0000	0.04984
540.0000	0.04924
539.0000	0.04837
538.0000	0.04785
537.0000	0.0475
536.0000	0.04681
535.0000	0.0461
534.0000	0.0454
533.0000	0.04455
532.0000	0.04383
531.0000	0.04321
530.0000	0.04228
529.0000	0.04145
528.0000	0.04059
527.0000	0.03989
526.0000	0.03937
525.0000	0.03874
524.0000	0.03795
523.0000	0.03728
522.0000	0.03664
521.0000	0.0359
520.0000	0.03515
519.0000	0.03462
518.0000	0.03419
517.0000	0.03392
516.0000	0.03355
515.0000	0.03301
514.0000	0.0325
513.0000	0.03214
512.0000	0.03172
511.0000	0.03126
510.0000	0.03086
509.0000	0.0305
508.0000	0.0299
507.0000	0.02935
506.0000	0.02882
505.0000	0.02837
504.0000	0.0282
503.0000	0.02772
502.0000	0.02716
501.0000	0.02689
500.0000	0.02636
499.0000	0.02594
498.0000	0.02549
497.0000	0.02506
496.0000	0.02461
495.0000	0.02418
494.0000	0.02379
493.0000	0.02343
492.0000	0.02312
491.0000	0.02279
490.0000	0.02238
489.0000	0.02198
488.0000	0.02171
487.0000	0.02139
486.0000	0.02111
485.0000	0.0208
484.0000	0.02045
483.0000	0.02029
482.0000	0.02034
481.0000	0.02016
480.0000	0.02002
479.0000	0.01963
478.0000	0.01946
477.0000	0.01935
476.0000	0.01939
475.0000	0.01914
474.0000	0.01901
473.0000	0.01891
472.0000	0.01887
471.0000	0.01891
470.0000	0.01889
469.0000	0.01875
468.0000	0.01874
467.0000	0.01884
466.0000	0.01877
465.0000	0.01874
464.0000	0.01883
463.0000	0.01879
462.0000	0.01878
461.0000	0.01879
460.0000	0.01897
459.0000	0.01903
458.0000	0.01889
457.0000	0.01874
456.0000	0.01849
455.0000	0.01828
454.0000	0.01849
453.0000	0.01866
452.0000	0.01874
451.0000	0.01889
450.0000	0.01896
449.0000	0.0189
448.0000	0.01876
447.0000	0.01886
446.0000	0.01861
445.0000	0.0186
444.0000	0.01855
443.0000	0.01879
442.0000	0.01898
441.0000	0.01916
440.0000	0.01901
439.0000	0.0189
438.0000	0.01855
437.0000	0.01838
436.0000	0.01852
435.0000	0.01829
434.0000	0.01814
433.0000	0.01797
432.0000	0.01778
431.0000	0.01758
430.0000	0.01763
429.0000	0.01753
428.0000	0.0173
427.0000	0.01704
426.0000	0.01682
425.0000	0.01654
424.0000	0.01601
423.0000	0.0158
422.0000	0.01542
421.0000	0.0151
420.0000	0.01454
419.0000	0.01424
418.0000	0.01436
417.0000	0.01451
416.0000	0.0144
415.0000	0.01421
414.0000	0.01441
413.0000	0.01441
412.0000	0.01391
411.0000	0.01371
410.0000	0.01364
409.0000	0.01344
408.0000	0.01311
407.0000	0.01294
406.0000	0.01244
405.0000	0.01204
404.0000	0.01205
403.0000	0.01189
402.0000	0.01178
401.0000	0.01168
400.0000	0.01196
399.0000	0.0122
398.0000	0.01262
397.0000	0.0131
396.0000	0.01349
395.0000	0.01412
394.0000	0.01489
393.0000	0.01549
392.0000	0.01685
391.0000	0.01785
390.0000	0.0191
389.0000	0.02055
388.0000	0.02172
387.0000	0.02306
386.0000	0.02474
385.0000	0.02672
384.0000	0.02885
383.0000	0.03078
382.0000	0.0328
381.0000	0.03536
380.0000	0.03811
379.0000	0.04081
378.0000	0.04347
377.0000	0.04616
376.0000	0.04876
375.0000	0.05171
374.0000	0.05436
373.0000	0.05722
372.0000	0.06001
371.0000	0.063
370.0000	0.06521
369.0000	0.06782
368.0000	0.07015
367.0000	0.07239
366.0000	0.07446
365.0000	0.07653
364.0000	0.07831
363.0000	0.08001
362.0000	0.08181
361.0000	0.08323
360.0000	0.08455
359.0000	0.08573
358.0000	0.0865
357.0000	0.08713
356.0000	0.08788
355.0000	0.08772
354.0000	0.08755
353.0000	0.08735
352.0000	0.08705
351.0000	0.08608
350.0000	0.08543
349.0000	0.08475
348.0000	0.08334
347.0000	0.08263
346.0000	0.0819
345.0000	0.07991
344.0000	0.078
343.0000	0.07649
342.0000	0.07492
341.0000	0.07319
340.0000	0.07023
339.0000	0.06833
338.0000	0.06666
337.0000	0.06446
336.0000	0.06276
335.0000	0.06108
334.0000	0.05904
333.0000	0.05719
332.0000	0.05554
331.0000	0.05386
330.0000	0.05203
329.0000	0.05057
328.0000	0.04874
327.0000	0.04789
326.0000	0.04675
325.0000	0.04612
324.0000	0.04533
323.0000	0.04393
322.0000	0.04294
321.0000	0.04233
320.0000	0.04177
319.0000	0.04046
318.0000	0.03942
317.0000	0.03847
316.0000	0.03797
315.0000	0.03679
314.0000	0.03637
313.0000	0.03564
312.0000	0.03549
311.0000	0.03471
310.0000	0.03458
309.0000	0.03465
308.0000	0.03429
307.0000	0.03363
306.0000	0.03288
305.0000	0.03293
304.0000	0.03306
303.0000	0.0328
302.0000	0.03238
301.0000	0.03224
300.0000	0.03286
