TITLE	
DATA TYPE	
ORIGIN	JASCO
OWNER	
DATE	23/05/04
TIME	17:17:53
SPECTROMETER/DATA SYSTEM	JASCO Corp., V-550, Rev. 1.00
RESOLUTION	
DELTAX	-1
XUNITS	NANOMETERS
YUNITS	ABSORBANCE
FIRSTX	700.0000
LASTX	300.0000
NPOINTS	401
FIRSTY	0.02495
MAXY	0.03923
MINY	-0.02575
XYDATA
700.0000	0.02495
699.0000	0.02413
698.0000	0.024
697.0000	0.02412
696.0000	0.02417
695.0000	0.02415
694.0000	0.02413
693.0000	0.02415
692.0000	0.02394
691.0000	0.02372
690.0000	0.02355
689.0000	0.02329
688.0000	0.0229
687.0000	0.02247
686.0000	0.0221
685.0000	0.02164
684.0000	0.02121
683.0000	0.02075
682.0000	0.0203
681.0000	0.01986
680.0000	0.01939
679.0000	0.01938
678.0000	0.01929
677.0000	0.0192
676.0000	0.01907
675.0000	0.01892
674.0000	0.01891
673.0000	0.01893
672.0000	0.01892
671.0000	0.01881
670.0000	0.01883
669.0000	0.01909
668.0000	0.01879
667.0000	0.01876
666.0000	0.01888
665.0000	0.01885
664.0000	0.01886
663.0000	0.01886
662.0000	0.01898
661.0000	0.01901
660.0000	0.0189
659.0000	0.01894
658.0000	0.01886
657.0000	0.01884
656.0000	0.01894
655.0000	0.0188
654.0000	0.01868
653.0000	0.0187
652.0000	0.01863
651.0000	0.01853
650.0000	0.01843
649.0000	0.01822
648.0000	0.01801
647.0000	0.01782
646.0000	0.01764
645.0000	0.01756
644.0000	0.01741
643.0000	0.01724
642.0000	0.01695
641.0000	0.01667
640.0000	0.01668
639.0000	0.0165
638.0000	0.01631
637.0000	0.016
636.0000	0.01581
635.0000	0.01563
634.0000	0.01548
633.0000	0.01538
632.0000	0.01499
631.0000	0.01478
630.0000	0.01465
629.0000	0.01464
628.0000	0.01435
627.0000	0.01393
626.0000	0.01375
625.0000	0.01353
624.0000	0.0133
623.0000	0.01318
622.0000	0.01283
621.0000	0.01274
620.0000	0.01253
619.0000	0.01241
618.0000	0.01215
617.0000	0.01193
616.0000	0.01181
615.0000	0.0115
614.0000	0.0113
613.0000	0.01117
612.0000	0.01092
611.0000	0.01065
610.0000	0.0105
609.0000	0.01045
608.0000	0.01032
607.0000	0.01021
606.0000	0.00994
605.0000	0.0098
604.0000	0.00963
603.0000	0.00943
602.0000	0.00928
601.0000	0.00912
600.0000	0.00905
599.0000	0.00878
598.0000	0.00887
597.0000	0.00883
596.0000	0.00847
595.0000	0.00838
594.0000	0.00819
593.0000	0.00819
592.0000	0.00817
591.0000	0.00797
590.0000	0.00767
589.0000	0.00757
588.0000	0.00755
587.0000	0.00742
586.0000	0.00743
585.0000	0.00735
584.0000	0.00727
583.0000	0.00708
582.0000	0.00681
581.0000	0.00673
580.0000	0.00671
579.0000	0.00669
578.0000	0.00656
577.0000	0.00648
576.0000	0.00635
575.0000	0.00633
574.0000	0.00627
573.0000	0.00633
572.0000	0.00622
571.0000	0.00597
570.0000	0.00593
569.0000	0.00586
568.0000	0.00577
567.0000	0.00574
566.0000	0.00575
565.0000	0.00571
564.0000	0.00553
563.0000	0.00539
562.0000	0.00544
561.0000	0.00542
560.0000	0.00541
559.0000	0.00533
558.0000	0.00529
557.0000	0.00525
556.0000	0.00524
555.0000	0.00511
554.0000	0.0051
553.0000	0.00485
552.0000	0.00484
551.0000	0.00489
550.0000	0.00484
549.0000	0.00476
548.0000	0.00492
547.0000	0.00494
546.0000	0.00483
545.0000	0.00469
544.0000	0.00463
543.0000	0.00467
542.0000	0.00476
541.0000	0.00466
540.0000	0.00472
539.0000	0.00454
538.0000	0.00449
537.0000	0.00436
536.0000	0.00423
535.0000	0.00428
534.0000	0.00432
533.0000	0.00428
532.0000	0.00427
531.0000	0.00424
530.0000	0.00417
529.0000	0.00411
528.0000	0.00395
527.0000	0.00404
526.0000	0.00394
525.0000	0.00377
524.0000	0.00394
523.0000	0.0039
522.0000	0.00379
521.0000	0.00378
520.0000	0.00347
519.0000	0.00359
518.0000	0.00362
517.0000	0.00355
516.0000	0.00345
515.0000	0.00343
514.0000	0.00328
513.0000	0.00335
512.0000	0.00335
511.0000	0.00335
510.0000	0.00317
509.0000	0.00304
508.0000	0.0031
507.0000	0.00316
506.0000	0.00307
505.0000	0.00312
504.0000	0.00308
503.0000	0.00301
502.0000	0.00287
501.0000	0.00295
500.0000	0.00292
499.0000	0.00293
498.0000	0.00286
497.0000	0.0028
496.0000	0.0029
495.0000	0.00296
494.0000	0.00297
493.0000	0.00307
492.0000	0.00306
491.0000	0.00305
490.0000	0.00307
489.0000	0.00302
488.0000	0.0031
487.0000	0.00312
486.0000	0.00323
485.0000	0.00305
484.0000	0.00309
483.0000	0.0032
482.0000	0.00333
481.0000	0.00332
480.0000	0.00351
479.0000	0.00351
478.0000	0.00362
477.0000	0.00377
476.0000	0.00382
475.0000	0.0039
474.0000	0.00396
473.0000	0.00391
472.0000	0.00409
471.0000	0.00436
470.0000	0.00447
469.0000	0.00446
468.0000	0.00465
467.0000	0.00473
466.0000	0.00477
465.0000	0.00491
464.0000	0.00512
463.0000	0.00519
462.0000	0.00526
461.0000	0.00522
460.0000	0.00533
459.0000	0.00541
458.0000	0.00558
457.0000	0.00543
456.0000	0.00542
455.0000	0.00536
454.0000	0.00543
453.0000	0.00545
452.0000	0.00541
451.0000	0.00533
450.0000	0.00537
449.0000	0.00538
448.0000	0.00542
447.0000	0.00546
446.0000	0.00541
445.0000	0.0056
444.0000	0.00568
443.0000	0.00567
442.0000	0.00585
441.0000	0.00616
440.0000	0.00641
439.0000	0.00663
438.0000	0.00686
437.0000	0.00719
436.0000	0.00771
435.0000	0.00815
434.0000	0.0086
433.0000	0.00904
432.0000	0.00969
431.0000	0.01025
430.0000	0.01096
429.0000	0.01182
428.0000	0.01251
427.0000	0.01336
426.0000	0.01426
425.0000	0.01487
424.0000	0.01549
423.0000	0.0166
422.0000	0.01752
421.0000	0.01847
420.0000	0.01927
419.0000	0.02028
418.0000	0.02137
417.0000	0.02253
416.0000	0.02369
415.0000	0.02469
414.0000	0.02586
413.0000	0.027
412.0000	0.02779
411.0000	0.0288
410.0000	0.02972
409.0000	0.03048
408.0000	0.03168
407.0000	0.03269
406.0000	0.0333
405.0000	0.03406
404.0000	0.03512
403.0000	0.03577
402.0000	0.03651
401.0000	0.03708
400.0000	0.03772
399.0000	0.03795
398.0000	0.03829
397.0000	0.03862
396.0000	0.03909
395.0000	0.03899
394.0000	0.03908
393.0000	0.03881
392.0000	0.03923
391.0000	0.0389
390.0000	0.03837
389.0000	0.03787
388.0000	0.03717
387.0000	0.03637
386.0000	0.03554
385.0000	0.03469
384.0000	0.034
383.0000	0.03303
382.0000	0.03173
381.0000	0.03084
380.0000	0.02956
379.0000	0.02834
378.0000	0.02722
377.0000	0.02604
376.0000	0.02462
375.0000	0.02352
374.0000	0.02226
373.0000	0.021
372.0000	0.0199
371.0000	0.01857
370.0000	0.01775
369.0000	0.0168
368.0000	0.01565
367.0000	0.01437
366.0000	0.01353
365.0000	0.01287
364.0000	0.01197
363.0000	0.01097
362.0000	0.01047
361.0000	0.00992
360.0000	0.00929
359.0000	0.00848
358.0000	0.00819
357.0000	0.00766
356.0000	0.00735
355.0000	0.00661
354.0000	0.00632
353.0000	0.00595
352.0000	0.0057
351.0000	0.00548
350.0000	0.00558
349.0000	0.00529
348.0000	0.00461
347.0000	0.00482
346.0000	0.00447
345.0000	0.00379
344.0000	0.00335
343.0000	0.00343
342.0000	0.00347
341.0000	0.00275
340.0000	-0.00082
339.0000	-0.00097
338.0000	-0.00187
337.0000	-0.00336
336.0000	-0.00406
335.0000	-0.00588
334.0000	-0.00786
333.0000	-0.00997
332.0000	-0.01271
331.0000	-0.01543
330.0000	-0.01675
329.0000	-0.01744
328.0000	-0.01797
327.0000	-0.01762
326.0000	-0.01766
325.0000	-0.0181
324.0000	-0.01833
323.0000	-0.0186
322.0000	-0.0187
321.0000	-0.0195
320.0000	-0.01992
319.0000	-0.0212
318.0000	-0.02294
317.0000	-0.02368
316.0000	-0.02448
315.0000	-0.02575
314.0000	-0.02558
313.0000	-0.02539
312.0000	-0.02456
311.0000	-0.0233
310.0000	-0.02193
309.0000	-0.02126
308.0000	-0.01993
307.0000	-0.01858
306.0000	-0.01788
305.0000	-0.01711
304.0000	-0.01618
303.0000	-0.01622
302.0000	-0.01578
301.0000	-0.01439
300.0000	-0.01154
