TITLE	
DATA TYPE	
ORIGIN	JASCO
OWNER	
DATE	23/05/04
TIME	09:59:39
SPECTROMETER/DATA SYSTEM	JASCO Corp., V-550, Rev. 1.00
RESOLUTION	
DELTAX	-0.5
XUNITS	NANOMETERS
YUNITS	ABSORBANCE
FIRSTX	700.0000
LASTX	300.0000
NPOINTS	801
FIRSTY	0.01329
MAXY	0.05600
MINY	-0.24436
XYDATA
700.0000	0.01329
699.5000	0.01294
699.0000	0.01236
698.5000	0.01237
698.0000	0.01234
697.5000	0.01236
697.0000	0.01233
696.5000	0.01221
696.0000	0.01214
695.5000	0.01209
695.0000	0.01204
694.5000	0.01202
694.0000	0.01205
693.5000	0.01198
693.0000	0.01202
692.5000	0.0119
692.0000	0.01185
691.5000	0.01172
691.0000	0.01173
690.5000	0.01168
690.0000	0.01181
689.5000	0.01175
689.0000	0.01174
688.5000	0.01163
688.0000	0.01158
687.5000	0.01155
687.0000	0.01158
686.5000	0.0116
686.0000	0.01163
685.5000	0.01161
685.0000	0.01158
684.5000	0.01152
684.0000	0.01155
683.5000	0.01154
683.0000	0.01159
682.5000	0.01154
682.0000	0.01155
681.5000	0.01141
681.0000	0.01137
680.5000	0.01154
680.0000	0.01129
679.5000	0.01133
679.0000	0.01121
678.5000	0.01108
678.0000	0.01125
677.5000	0.01132
677.0000	0.01135
676.5000	0.0113
676.0000	0.01124
675.5000	0.01133
675.0000	0.01141
674.5000	0.01142
674.0000	0.01137
673.5000	0.01136
673.0000	0.01131
672.5000	0.01134
672.0000	0.01132
671.5000	0.01133
671.0000	0.01131
670.5000	0.01128
670.0000	0.01135
669.5000	0.01132
669.0000	0.01134
668.5000	0.01137
668.0000	0.01136
667.5000	0.01132
667.0000	0.01142
666.5000	0.01147
666.0000	0.01147
665.5000	0.01142
665.0000	0.0114
664.5000	0.01139
664.0000	0.01135
663.5000	0.01134
663.0000	0.01133
662.5000	0.01133
662.0000	0.01136
661.5000	0.01141
661.0000	0.01143
660.5000	0.01134
660.0000	0.01127
659.5000	0.01128
659.0000	0.01129
658.5000	0.01132
658.0000	0.01148
657.5000	0.01154
657.0000	0.01156
656.5000	0.01152
656.0000	0.01153
655.5000	0.01157
655.0000	0.01156
654.5000	0.01147
654.0000	0.01143
653.5000	0.01141
653.0000	0.01135
652.5000	0.01135
652.0000	0.0113
651.5000	0.01112
651.0000	0.01098
650.5000	0.01091
650.0000	0.01084
649.5000	0.01082
649.0000	0.01072
648.5000	0.01071
648.0000	0.01064
647.5000	0.01059
647.0000	0.01043
646.5000	0.01045
646.0000	0.01034
645.5000	0.01029
645.0000	0.01014
644.5000	0.01008
644.0000	0.00988
643.5000	0.00981
643.0000	0.00975
642.5000	0.00973
642.0000	0.00969
641.5000	0.00959
641.0000	0.00951
640.5000	0.00943
640.0000	0.00937
639.5000	0.00927
639.0000	0.00917
638.5000	0.00912
638.0000	0.00907
637.5000	0.00899
637.0000	0.00893
636.5000	0.00882
636.0000	0.00875
635.5000	0.00861
635.0000	0.00848
634.5000	0.00838
634.0000	0.00821
633.5000	0.00812
633.0000	0.00805
632.5000	0.00801
632.0000	0.00796
631.5000	0.00784
631.0000	0.00778
630.5000	0.00769
630.0000	0.00756
629.5000	0.00748
629.0000	0.00729
628.5000	0.00723
628.0000	0.00708
627.5000	0.00704
627.0000	0.00686
626.5000	0.00679
626.0000	0.00663
625.5000	0.00657
625.0000	0.00641
624.5000	0.00635
624.0000	0.00618
623.5000	0.00608
623.0000	0.00594
622.5000	0.00581
622.0000	0.00569
621.5000	0.00566
621.0000	0.00562
620.5000	0.00551
620.0000	0.0054
619.5000	0.00528
619.0000	0.00519
618.5000	0.00509
618.0000	0.00502
617.5000	0.00496
617.0000	0.00481
616.5000	0.00476
616.0000	0.00466
615.5000	0.00455
615.0000	0.00446
614.5000	0.00441
614.0000	0.00431
613.5000	0.00417
613.0000	0.00403
612.5000	0.004
612.0000	0.00399
611.5000	0.00383
611.0000	0.00363
610.5000	0.00353
610.0000	0.00337
609.5000	0.00327
609.0000	0.00324
608.5000	0.00313
608.0000	0.00315
607.5000	0.00301
607.0000	0.00296
606.5000	0.00289
606.0000	0.00277
605.5000	0.00273
605.0000	0.00266
604.5000	0.00263
604.0000	0.00261
603.5000	0.00249
603.0000	0.0024
602.5000	0.00241
602.0000	0.00235
601.5000	0.00232
601.0000	0.00224
600.5000	0.00214
600.0000	0.00207
599.5000	0.00208
599.0000	0.00204
598.5000	0.00199
598.0000	0.00189
597.5000	0.00181
597.0000	0.00164
596.5000	0.00165
596.0000	0.0016
595.5000	0.0016
595.0000	0.00154
594.5000	0.00153
594.0000	0.00141
593.5000	0.00136
593.0000	0.00126
592.5000	0.00125
592.0000	0.00125
591.5000	0.00117
591.0000	0.00104
590.5000	0.00099
590.0000	0.00098
589.5000	0.00105
589.0000	0.00103
588.5000	0.00095
588.0000	0.00082
587.5000	0.00078
587.0000	0.00077
586.5000	0.00076
586.0000	0.00075
585.5000	0.00069
585.0000	0.00062
584.5000	0.00058
584.0000	0.00055
583.5000	0.00053
583.0000	0.00047
582.5000	0.00037
582.0000	0.00027
581.5000	0.00038
581.0000	0.00042
580.5000	0.00032
580.0000	0.00018
579.5000	0.00012
579.0000	0.00012
578.5000	0.00015
578.0000	0.00015
577.5000	0.00016
577.0000	0.00019
576.5000	0.0002
576.0000	0.00014
575.5000	0.0001
575.0000	7E-005
574.5000	7E-005
574.0000	3E-005
573.5000	-2E-005
573.0000	-0.00014
572.5000	-0.00015
572.0000	-0.00011
571.5000	-0.00015
571.0000	-0.0002
570.5000	-0.00032
570.0000	-0.00041
569.5000	-0.00034
569.0000	-0.00029
568.5000	-0.00027
568.0000	-0.00027
567.5000	-0.00023
567.0000	-0.00025
566.5000	-0.00029
566.0000	-0.00038
565.5000	-0.00049
565.0000	-0.00065
564.5000	-0.00055
564.0000	-0.00049
563.5000	-0.00054
563.0000	-0.00053
562.5000	-0.00047
562.0000	-0.00034
561.5000	-0.0004
561.0000	-0.00047
560.5000	-0.00057
560.0000	-0.00062
559.5000	-0.0006
559.0000	-0.0005
558.5000	-0.00056
558.0000	-0.00051
557.5000	-0.00048
557.0000	-0.00037
556.5000	-0.00041
556.0000	-0.00042
555.5000	-0.0005
555.0000	-0.00054
554.5000	-0.00052
554.0000	-0.00049
553.5000	-0.00053
553.0000	-0.00051
552.5000	-0.00044
552.0000	-0.00045
551.5000	-0.00047
551.0000	-0.0004
550.5000	-0.00035
550.0000	-0.00034
549.5000	-0.00043
549.0000	-0.00047
548.5000	-0.0005
548.0000	-0.00042
547.5000	-0.00045
547.0000	-0.00034
546.5000	-0.00037
546.0000	-0.00043
545.5000	-0.00042
545.0000	-0.00047
544.5000	-0.00043
544.0000	-0.00039
543.5000	-0.00035
543.0000	-0.00029
542.5000	-0.0003
542.0000	-0.00027
541.5000	-0.00023
541.0000	-0.00024
540.5000	-0.00026
540.0000	-0.00022
539.5000	-0.00026
539.0000	-0.00019
538.5000	-0.0002
538.0000	-0.00017
537.5000	-0.00016
537.0000	-0.00017
536.5000	-9E-005
536.0000	-0.00011
535.5000	-9E-005
535.0000	-0.0001
534.5000	-0.00016
534.0000	-0.00017
533.5000	-0.00019
533.0000	-9E-005
532.5000	-9E-005
532.0000	-1E-005
531.5000	-3E-005
531.0000	-6E-005
530.5000	-0.00015
530.0000	-0.00021
529.5000	-0.00018
529.0000	-0.00016
528.5000	-0.0001
528.0000	-4E-005
527.5000	-4E-005
527.0000	-0.00013
526.5000	-6E-005
526.0000	-4E-005
525.5000	1E-005
525.0000	3E-005
524.5000	4E-005
524.0000	0.0001
523.5000	5E-005
523.0000	6E-005
522.5000	0.0001
522.0000	0.00015
521.5000	0.00012
521.0000	0.00021
520.5000	0.00019
520.0000	8E-005
519.5000	0.00018
519.0000	0.00018
518.5000	0.00025
518.0000	0.00026
517.5000	0.00032
517.0000	0.00037
516.5000	0.00033
516.0000	0.0003
515.5000	0.0003
515.0000	0.00024
514.5000	0.00032
514.0000	0.00031
513.5000	0.00035
513.0000	0.00039
512.5000	0.00033
512.0000	0.00023
511.5000	0.0002
511.0000	0.00022
510.5000	0.00031
510.0000	0.00039
509.5000	0.0004
509.0000	0.00035
508.5000	0.00042
508.0000	0.00042
507.5000	0.00043
507.0000	0.00044
506.5000	0.00044
506.0000	0.00045
505.5000	0.00047
505.0000	0.0005
504.5000	0.00042
504.0000	0.0003
503.5000	0.00036
503.0000	0.00042
502.5000	0.00046
502.0000	0.0005
501.5000	0.00048
501.0000	0.00051
500.5000	0.00061
500.0000	0.00075
499.5000	0.00073
499.0000	0.00068
498.5000	0.00069
498.0000	0.00073
497.5000	0.00076
497.0000	0.0007
496.5000	0.00073
496.0000	0.00073
495.5000	0.00084
495.0000	0.00082
494.5000	0.00081
494.0000	0.0008
493.5000	0.00084
493.0000	0.00083
492.5000	0.00088
492.0000	0.00096
491.5000	0.00098
491.0000	0.00087
490.5000	0.00083
490.0000	0.00087
489.5000	0.00096
489.0000	0.00101
488.5000	0.00112
488.0000	0.00111
487.5000	0.00123
487.0000	0.00119
486.5000	0.00124
486.0000	0.00126
485.5000	0.00132
485.0000	0.0013
484.5000	0.00135
484.0000	0.00137
483.5000	0.00142
483.0000	0.00142
482.5000	0.00147
482.0000	0.00147
481.5000	0.00152
481.0000	0.0015
480.5000	0.00151
480.0000	0.00155
479.5000	0.00159
479.0000	0.00169
478.5000	0.00178
478.0000	0.00189
477.5000	0.00191
477.0000	0.00193
476.5000	0.00193
476.0000	0.00197
475.5000	0.00194
475.0000	0.00197
474.5000	0.00204
474.0000	0.00212
473.5000	0.00218
473.0000	0.00222
472.5000	0.00223
472.0000	0.00219
471.5000	0.00229
471.0000	0.00235
470.5000	0.00241
470.0000	0.00245
469.5000	0.00248
469.0000	0.0025
468.5000	0.00253
468.0000	0.00258
467.5000	0.00258
467.0000	0.00262
466.5000	0.00273
466.0000	0.0028
465.5000	0.00285
465.0000	0.00279
464.5000	0.0028
464.0000	0.00278
463.5000	0.00282
463.0000	0.00293
462.5000	0.00298
462.0000	0.00305
461.5000	0.0031
461.0000	0.00304
460.5000	0.0031
460.0000	0.00308
459.5000	0.00314
459.0000	0.00308
458.5000	0.00303
458.0000	0.00305
457.5000	0.00308
457.0000	0.00309
456.5000	0.00308
456.0000	0.00311
455.5000	0.00319
455.0000	0.00322
454.5000	0.00317
454.0000	0.00311
453.5000	0.00308
453.0000	0.00314
452.5000	0.00316
452.0000	0.00321
451.5000	0.00319
451.0000	0.00325
450.5000	0.00331
450.0000	0.00332
449.5000	0.00335
449.0000	0.00335
448.5000	0.00328
448.0000	0.00322
447.5000	0.0033
447.0000	0.00344
446.5000	0.00347
446.0000	0.00348
445.5000	0.00364
445.0000	0.00372
444.5000	0.00379
444.0000	0.00386
443.5000	0.0039
443.0000	0.00406
442.5000	0.00407
442.0000	0.00423
441.5000	0.0043
441.0000	0.00443
440.5000	0.00454
440.0000	0.00465
439.5000	0.00474
439.0000	0.00478
438.5000	0.00481
438.0000	0.00494
437.5000	0.00498
437.0000	0.00517
436.5000	0.00537
436.0000	0.00551
435.5000	0.00568
435.0000	0.00585
434.5000	0.006
434.0000	0.00623
433.5000	0.00641
433.0000	0.0067
432.5000	0.00684
432.0000	0.00699
431.5000	0.0072
431.0000	0.00746
430.5000	0.00758
430.0000	0.00789
429.5000	0.00813
429.0000	0.00835
428.5000	0.00859
428.0000	0.0089
427.5000	0.00915
427.0000	0.00943
426.5000	0.00964
426.0000	0.01001
425.5000	0.01009
425.0000	0.01052
424.5000	0.01069
424.0000	0.01112
423.5000	0.01148
423.0000	0.01197
422.5000	0.01231
422.0000	0.01273
421.5000	0.01307
421.0000	0.01345
420.5000	0.01378
420.0000	0.01405
419.5000	0.01432
419.0000	0.0147
418.5000	0.0151
418.0000	0.01571
417.5000	0.01608
417.0000	0.01657
416.5000	0.01685
416.0000	0.01738
415.5000	0.01769
415.0000	0.01817
414.5000	0.01848
414.0000	0.01893
413.5000	0.01937
413.0000	0.01979
412.5000	0.02009
412.0000	0.02051
411.5000	0.02072
411.0000	0.0213
410.5000	0.02154
410.0000	0.022
409.5000	0.02225
409.0000	0.02261
408.5000	0.0229
408.0000	0.02325
407.5000	0.02355
407.0000	0.02393
406.5000	0.02414
406.0000	0.02436
405.5000	0.02472
405.0000	0.02494
404.5000	0.02522
404.0000	0.02542
403.5000	0.02568
403.0000	0.02614
402.5000	0.02627
402.0000	0.02654
401.5000	0.02651
401.0000	0.02673
400.5000	0.02685
400.0000	0.02695
399.5000	0.02713
399.0000	0.02734
398.5000	0.02763
398.0000	0.02804
397.5000	0.02815
397.0000	0.02786
396.5000	0.02769
396.0000	0.0277
395.5000	0.02772
395.0000	0.02766
394.5000	0.0275
394.0000	0.02744
393.5000	0.02735
393.0000	0.02731
392.5000	0.02711
392.0000	0.02691
391.5000	0.02675
391.0000	0.02658
390.5000	0.02639
390.0000	0.02614
389.5000	0.02603
389.0000	0.02572
388.5000	0.02566
388.0000	0.02542
387.5000	0.02527
387.0000	0.02498
386.5000	0.02479
386.0000	0.02442
385.5000	0.02409
385.0000	0.02368
384.5000	0.02348
384.0000	0.02316
383.5000	0.02278
383.0000	0.02224
382.5000	0.02193
382.0000	0.02153
381.5000	0.02116
381.0000	0.02063
380.5000	0.02035
380.0000	0.01997
379.5000	0.01973
379.0000	0.0195
378.5000	0.01936
378.0000	0.01919
377.5000	0.01911
377.0000	0.01908
376.5000	0.019
376.0000	0.01901
375.5000	0.01906
375.0000	0.01928
374.5000	0.01961
374.0000	0.02003
373.5000	0.02037
373.0000	0.02082
372.5000	0.02134
372.0000	0.02216
371.5000	0.02251
371.0000	0.02328
370.5000	0.02394
370.0000	0.02432
369.5000	0.02505
369.0000	0.02622
368.5000	0.02693
368.0000	0.02781
367.5000	0.02858
367.0000	0.02992
366.5000	0.03043
366.0000	0.03127
365.5000	0.03198
365.0000	0.03318
364.5000	0.03382
364.0000	0.03465
363.5000	0.03508
363.0000	0.03596
362.5000	0.03658
362.0000	0.0375
361.5000	0.03806
361.0000	0.03902
360.5000	0.03954
360.0000	0.04021
359.5000	0.04076
359.0000	0.04143
358.5000	0.04205
358.0000	0.04287
357.5000	0.04348
357.0000	0.04419
356.5000	0.0446
356.0000	0.04538
355.5000	0.04604
355.0000	0.04694
354.5000	0.04754
354.0000	0.04838
353.5000	0.04891
353.0000	0.04964
352.5000	0.05027
352.0000	0.05108
351.5000	0.05143
351.0000	0.05219
350.5000	0.05261
350.0000	0.05334
349.5000	0.05367
349.0000	0.05415
348.5000	0.05461
348.0000	0.0553
347.5000	0.05557
347.0000	0.056
346.5000	0.05574
346.0000	0.0557
345.5000	0.05585
345.0000	0.05585
344.5000	0.05587
344.0000	0.05558
343.5000	0.05552
343.0000	0.05534
342.5000	0.05484
342.0000	0.05367
341.5000	0.0528
341.0000	0.05156
340.5000	0.05107
340.0000	0.04681
339.5000	0.04637
339.0000	0.04535
338.5000	0.04435
338.0000	0.04274
337.5000	0.04135
337.0000	0.03945
336.5000	0.03791
336.0000	0.03548
335.5000	0.03369
335.0000	0.03089
334.5000	0.02858
334.0000	0.02536
333.5000	0.02344
333.0000	0.02033
332.5000	0.01828
332.0000	0.01526
331.5000	0.01334
331.0000	0.01008
330.5000	0.00838
330.0000	0.00554
329.5000	0.00383
329.0000	0.00132
328.5000	-0.00032
328.0000	-0.00272
327.5000	-0.00419
327.0000	-0.00607
326.5000	-0.0074
326.0000	-0.00936
325.5000	-0.01064
325.0000	-0.01253
324.5000	-0.01409
324.0000	-0.01623
323.5000	-0.01802
323.0000	-0.02039
322.5000	-0.0221
322.0000	-0.02479
321.5000	-0.02671
321.0000	-0.02931
320.5000	-0.03151
320.0000	-0.03458
319.5000	-0.03689
319.0000	-0.04027
318.5000	-0.04237
318.0000	-0.04562
317.5000	-0.0478
317.0000	-0.05102
316.5000	-0.05302
316.0000	-0.05652
315.5000	-0.05832
315.0000	-0.06112
314.5000	-0.06265
314.0000	-0.06538
313.5000	-0.06666
313.0000	-0.0685
312.5000	-0.06959
312.0000	-0.07133
311.5000	-0.07216
311.0000	-0.07404
310.5000	-0.07514
310.0000	-0.0771
309.5000	-0.07862
309.0000	-0.08152
308.5000	-0.08403
308.0000	-0.08817
307.5000	-0.09113
307.0000	-0.09574
306.5000	-0.09903
306.0000	-0.10472
305.5000	-0.1097
305.0000	-0.11768
304.5000	-0.12369
304.0000	-0.13397
303.5000	-0.14181
303.0000	-0.15474
302.5000	-0.16382
302.0000	-0.17887
301.5000	-0.1896
301.0000	-0.20766
300.5000	-0.22109
300.0000	-0.24436
