TITLE	
DATA TYPE	
ORIGIN	JASCO
OWNER	
DATE	23/05/04
TIME	10:24:28
SPECTROMETER/DATA SYSTEM	JASCO Corp., V-550, Rev. 1.00
RESOLUTION	
DELTAX	-0.5
XUNITS	NANOMETERS
YUNITS	ABSORBANCE
FIRSTX	700.0000
LASTX	300.0000
NPOINTS	801
FIRSTY	0.02481
MAXY	0.04919
MINY	-0.36383
XYDATA
700.0000	0.02481
699.5000	0.02442
699.0000	0.02379
698.5000	0.02382
698.0000	0.02369
697.5000	0.02377
697.0000	0.02369
696.5000	0.02367
696.0000	0.02361
695.5000	0.02358
695.0000	0.0235
694.5000	0.02333
694.0000	0.02328
693.5000	0.02319
693.0000	0.02314
692.5000	0.02295
692.0000	0.02292
691.5000	0.02275
691.0000	0.02274
690.5000	0.02259
690.0000	0.02256
689.5000	0.02247
689.0000	0.02247
688.5000	0.02233
688.0000	0.02228
687.5000	0.02222
687.0000	0.02223
686.5000	0.02219
686.0000	0.02221
685.5000	0.02207
685.0000	0.02207
684.5000	0.02192
684.0000	0.02192
683.5000	0.02178
683.0000	0.02176
682.5000	0.02165
682.0000	0.02158
681.5000	0.02152
681.0000	0.02155
680.5000	0.02178
680.0000	0.02147
679.5000	0.02138
679.0000	0.02116
678.5000	0.02099
678.0000	0.02106
677.5000	0.02115
677.0000	0.02122
676.5000	0.02111
676.0000	0.0211
675.5000	0.02112
675.0000	0.02122
674.5000	0.02123
674.0000	0.02111
673.5000	0.02107
673.0000	0.0209
672.5000	0.02086
672.0000	0.02086
671.5000	0.02086
671.0000	0.02083
670.5000	0.02084
670.0000	0.02082
669.5000	0.02082
669.0000	0.02093
668.5000	0.02092
668.0000	0.02099
667.5000	0.02093
667.0000	0.02083
666.5000	0.02084
666.0000	0.02086
665.5000	0.02082
665.0000	0.02084
664.5000	0.02081
664.0000	0.02085
663.5000	0.0208
663.0000	0.0208
662.5000	0.02079
662.0000	0.02085
661.5000	0.02084
661.0000	0.02102
660.5000	0.02096
660.0000	0.02097
659.5000	0.02087
659.0000	0.02083
658.5000	0.02085
658.0000	0.02089
657.5000	0.02089
657.0000	0.02085
656.5000	0.02075
656.0000	0.02074
655.5000	0.02081
655.0000	0.02088
654.5000	0.02074
654.0000	0.02062
653.5000	0.02052
653.0000	0.02048
652.5000	0.0205
652.0000	0.02044
651.5000	0.02032
651.0000	0.02008
650.5000	0.01998
650.0000	0.01981
649.5000	0.01973
649.0000	0.0196
648.5000	0.01959
648.0000	0.0195
647.5000	0.0194
647.0000	0.01922
646.5000	0.01908
646.0000	0.01885
645.5000	0.0187
645.0000	0.01854
644.5000	0.01839
644.0000	0.01823
643.5000	0.01822
643.0000	0.01818
642.5000	0.01809
642.0000	0.01791
641.5000	0.01782
641.0000	0.01768
640.5000	0.0176
640.0000	0.01754
639.5000	0.01731
639.0000	0.01717
638.5000	0.01699
638.0000	0.01684
637.5000	0.01673
637.0000	0.01663
636.5000	0.01654
636.0000	0.01642
635.5000	0.01624
635.0000	0.0159
634.5000	0.01574
634.0000	0.01548
633.5000	0.01534
633.0000	0.0151
632.5000	0.01513
632.0000	0.01502
631.5000	0.01484
631.0000	0.01457
630.5000	0.0144
630.0000	0.0143
629.5000	0.01416
629.0000	0.01402
628.5000	0.01385
628.0000	0.01364
627.5000	0.01349
627.0000	0.01337
626.5000	0.01324
626.0000	0.01311
625.5000	0.01301
625.0000	0.01282
624.5000	0.01261
624.0000	0.01234
623.5000	0.01223
623.0000	0.01204
622.5000	0.01186
622.0000	0.01158
621.5000	0.01157
621.0000	0.01145
620.5000	0.01137
620.0000	0.01114
619.5000	0.01099
619.0000	0.01081
618.5000	0.0107
618.0000	0.01058
617.5000	0.01043
617.0000	0.0102
616.5000	0.01011
616.0000	0.00992
615.5000	0.00973
615.0000	0.00951
614.5000	0.00945
614.0000	0.00928
613.5000	0.00915
613.0000	0.00896
612.5000	0.00892
612.0000	0.00875
611.5000	0.00863
611.0000	0.0083
610.5000	0.0082
610.0000	0.00804
609.5000	0.00794
609.0000	0.00779
608.5000	0.00761
608.0000	0.00748
607.5000	0.00734
607.0000	0.00722
606.5000	0.00709
606.0000	0.00691
605.5000	0.00692
605.0000	0.00682
604.5000	0.00676
604.0000	0.00662
603.5000	0.00646
603.0000	0.00628
602.5000	0.00625
602.0000	0.00615
601.5000	0.00609
601.0000	0.00602
600.5000	0.00597
600.0000	0.00587
599.5000	0.00578
599.0000	0.00563
598.5000	0.00553
598.0000	0.0054
597.5000	0.00528
597.0000	0.00517
596.5000	0.0051
596.0000	0.00497
595.5000	0.00491
595.0000	0.00482
594.5000	0.00479
594.0000	0.00473
593.5000	0.00475
593.0000	0.00466
592.5000	0.00453
592.0000	0.00435
591.5000	0.0042
591.0000	0.00409
590.5000	0.00399
590.0000	0.00398
589.5000	0.00399
589.0000	0.00402
588.5000	0.00396
588.0000	0.00387
587.5000	0.00378
587.0000	0.00367
586.5000	0.00367
586.0000	0.00364
585.5000	0.00351
585.0000	0.0034
584.5000	0.00335
584.0000	0.00328
583.5000	0.00324
583.0000	0.0032
582.5000	0.00313
582.0000	0.00301
581.5000	0.003
581.0000	0.00301
580.5000	0.00297
580.0000	0.00288
579.5000	0.0028
579.0000	0.00273
578.5000	0.00276
578.0000	0.00271
577.5000	0.0027
577.0000	0.00257
576.5000	0.00257
576.0000	0.00255
575.5000	0.00251
575.0000	0.00247
574.5000	0.00241
574.0000	0.00236
573.5000	0.00231
573.0000	0.00223
572.5000	0.00222
572.0000	0.00218
571.5000	0.00217
571.0000	0.00219
570.5000	0.00211
570.0000	0.00197
569.5000	0.00192
569.0000	0.00185
568.5000	0.00182
568.0000	0.00176
567.5000	0.0018
567.0000	0.00189
566.5000	0.00186
566.0000	0.00169
565.5000	0.00156
565.0000	0.0014
564.5000	0.00149
564.0000	0.00156
563.5000	0.00154
563.0000	0.00152
562.5000	0.00155
562.0000	0.00156
561.5000	0.00156
561.0000	0.0015
560.5000	0.00138
560.0000	0.00126
559.5000	0.00125
559.0000	0.00129
558.5000	0.00128
558.0000	0.0013
557.5000	0.00138
557.0000	0.00147
556.5000	0.00147
556.0000	0.00146
555.5000	0.00134
555.0000	0.00121
554.5000	0.00116
554.0000	0.00123
553.5000	0.00126
553.0000	0.00127
552.5000	0.00133
552.0000	0.00131
551.5000	0.00131
551.0000	0.00121
550.5000	0.00122
550.0000	0.00126
549.5000	0.00126
549.0000	0.00117
548.5000	0.00114
548.0000	0.00115
547.5000	0.00115
547.0000	0.00121
546.5000	0.00122
546.0000	0.00123
545.5000	0.00122
545.0000	0.00124
544.5000	0.00129
544.0000	0.0013
543.5000	0.00136
543.0000	0.00141
542.5000	0.00147
542.0000	0.00144
541.5000	0.00142
541.0000	0.00137
540.5000	0.00138
540.0000	0.00146
539.5000	0.00146
539.0000	0.00148
538.5000	0.00142
538.0000	0.0014
537.5000	0.00147
537.0000	0.00148
536.5000	0.00151
536.0000	0.00149
535.5000	0.00153
535.0000	0.00151
534.5000	0.00149
534.0000	0.00153
533.5000	0.00151
533.0000	0.00157
532.5000	0.00159
532.0000	0.00163
531.5000	0.0016
531.0000	0.0016
530.5000	0.00157
530.0000	0.00152
529.5000	0.0016
529.0000	0.00158
528.5000	0.00157
528.0000	0.00158
527.5000	0.00157
527.0000	0.00158
526.5000	0.00155
526.0000	0.00153
525.5000	0.00161
525.0000	0.00164
524.5000	0.0017
524.0000	0.00165
523.5000	0.00158
523.0000	0.00158
522.5000	0.0017
522.0000	0.00181
521.5000	0.00178
521.0000	0.00165
520.5000	0.00164
520.0000	0.00154
519.5000	0.00153
519.0000	0.00157
518.5000	0.00157
518.0000	0.00166
517.5000	0.00171
517.0000	0.00174
516.5000	0.00167
516.0000	0.0016
515.5000	0.00155
515.0000	0.00146
514.5000	0.00154
514.0000	0.00159
513.5000	0.00168
513.0000	0.00172
512.5000	0.00165
512.0000	0.00151
511.5000	0.00146
511.0000	0.0014
510.5000	0.00146
510.0000	0.00164
509.5000	0.00172
509.0000	0.00171
508.5000	0.00171
508.0000	0.00173
507.5000	0.00171
507.0000	0.00174
506.5000	0.00167
506.0000	0.00161
505.5000	0.0017
505.0000	0.0018
504.5000	0.00173
504.0000	0.00164
503.5000	0.00176
503.0000	0.00177
502.5000	0.00179
502.0000	0.00181
501.5000	0.00185
501.0000	0.00189
500.5000	0.00187
500.0000	0.00198
499.5000	0.00195
499.0000	0.002
498.5000	0.00192
498.0000	0.00192
497.5000	0.00197
497.0000	0.00204
496.5000	0.00204
496.0000	0.002
495.5000	0.00203
495.0000	0.00206
494.5000	0.002
494.0000	0.00196
493.5000	0.00202
493.0000	0.00208
492.5000	0.00219
492.0000	0.00224
491.5000	0.00222
491.0000	0.00217
490.5000	0.00217
490.0000	0.00222
489.5000	0.00228
489.0000	0.00228
488.5000	0.00226
488.0000	0.00234
487.5000	0.00244
487.0000	0.00247
486.5000	0.00251
486.0000	0.00261
485.5000	0.00261
485.0000	0.00263
484.5000	0.00263
484.0000	0.0027
483.5000	0.00281
483.0000	0.00282
482.5000	0.00283
482.0000	0.00281
481.5000	0.00292
481.0000	0.00299
480.5000	0.00303
480.0000	0.00312
479.5000	0.00316
479.0000	0.00325
478.5000	0.00333
478.0000	0.00346
477.5000	0.00351
477.0000	0.00349
476.5000	0.00354
476.0000	0.00358
475.5000	0.0036
475.0000	0.00363
474.5000	0.00367
474.0000	0.00372
473.5000	0.00375
473.0000	0.00382
472.5000	0.00387
472.0000	0.00395
471.5000	0.00411
471.0000	0.0042
470.5000	0.00428
470.0000	0.00429
469.5000	0.00433
469.0000	0.00438
468.5000	0.00446
468.0000	0.00451
467.5000	0.00456
467.0000	0.00456
466.5000	0.00472
466.0000	0.00482
465.5000	0.00491
465.0000	0.0049
464.5000	0.00491
464.0000	0.00491
463.5000	0.00494
463.0000	0.0051
462.5000	0.00512
462.0000	0.00522
461.5000	0.00528
461.0000	0.00536
460.5000	0.00539
460.0000	0.00547
459.5000	0.00555
459.0000	0.0056
458.5000	0.00561
458.0000	0.00563
457.5000	0.00565
457.0000	0.00567
456.5000	0.00568
456.0000	0.00571
455.5000	0.00582
455.0000	0.00588
454.5000	0.00592
454.0000	0.00592
453.5000	0.00587
453.0000	0.00597
452.5000	0.00599
452.0000	0.00617
451.5000	0.00617
451.0000	0.00618
450.5000	0.00611
450.0000	0.0062
449.5000	0.00626
449.0000	0.0064
448.5000	0.00638
448.0000	0.00637
447.5000	0.00644
447.0000	0.00661
446.5000	0.00671
446.0000	0.00678
445.5000	0.00683
445.0000	0.00696
444.5000	0.00705
444.0000	0.00719
443.5000	0.0072
443.0000	0.00723
442.5000	0.00732
442.0000	0.00755
441.5000	0.00766
441.0000	0.00782
440.5000	0.00793
440.0000	0.00815
439.5000	0.0083
439.0000	0.00857
438.5000	0.00867
438.0000	0.00892
437.5000	0.009
437.0000	0.00919
436.5000	0.00941
436.0000	0.00977
435.5000	0.01004
435.0000	0.01035
434.5000	0.01061
434.0000	0.01092
433.5000	0.01119
433.0000	0.01153
432.5000	0.01183
432.0000	0.01226
431.5000	0.01257
431.0000	0.013
430.5000	0.01322
430.0000	0.01365
429.5000	0.01404
429.0000	0.01474
428.5000	0.01516
428.0000	0.01585
427.5000	0.0161
427.0000	0.01668
426.5000	0.01698
426.0000	0.01767
425.5000	0.018
425.0000	0.0187
424.5000	0.01908
424.0000	0.01967
423.5000	0.02015
423.0000	0.02089
422.5000	0.02141
422.0000	0.02217
421.5000	0.02264
421.0000	0.02333
420.5000	0.02391
420.0000	0.02488
419.5000	0.02533
419.0000	0.02601
418.5000	0.02638
418.0000	0.02709
417.5000	0.02764
417.0000	0.02844
416.5000	0.02904
416.0000	0.03004
415.5000	0.0306
415.0000	0.03154
414.5000	0.03193
414.0000	0.03271
413.5000	0.03315
413.0000	0.03391
412.5000	0.0344
412.0000	0.03512
411.5000	0.03559
411.0000	0.03645
410.5000	0.03693
410.0000	0.03764
409.5000	0.03805
409.0000	0.0386
408.5000	0.03904
408.0000	0.03966
407.5000	0.04019
407.0000	0.04076
406.5000	0.04119
406.0000	0.0417
405.5000	0.04211
405.0000	0.04267
404.5000	0.04304
404.0000	0.04365
403.5000	0.044
403.0000	0.04466
402.5000	0.04487
402.0000	0.04541
401.5000	0.04569
401.0000	0.04603
400.5000	0.04608
400.0000	0.04615
399.5000	0.04647
399.0000	0.04696
398.5000	0.04725
398.0000	0.04757
397.5000	0.04772
397.0000	0.04787
396.5000	0.04778
396.0000	0.04781
395.5000	0.04777
395.0000	0.04785
394.5000	0.04783
394.0000	0.04775
393.5000	0.0476
393.0000	0.04732
392.5000	0.0472
392.0000	0.04693
391.5000	0.04683
391.0000	0.04653
390.5000	0.04622
390.0000	0.04585
389.5000	0.04553
389.0000	0.04512
388.5000	0.04492
388.0000	0.04466
387.5000	0.04433
387.0000	0.04378
386.5000	0.04342
386.0000	0.04281
385.5000	0.04229
385.0000	0.04157
384.5000	0.04123
384.0000	0.04062
383.5000	0.04008
383.0000	0.03908
382.5000	0.03842
382.0000	0.03776
381.5000	0.03718
381.0000	0.03639
380.5000	0.03582
380.0000	0.03502
379.5000	0.0346
379.0000	0.03403
378.5000	0.03357
378.0000	0.03296
377.5000	0.03263
377.0000	0.0323
376.5000	0.03198
376.0000	0.03153
375.5000	0.03124
375.0000	0.03096
374.5000	0.03081
374.0000	0.03078
373.5000	0.03074
373.0000	0.03077
372.5000	0.03094
372.0000	0.03137
371.5000	0.03146
371.0000	0.03166
370.5000	0.03189
370.0000	0.03245
369.5000	0.03262
369.0000	0.03311
368.5000	0.03334
368.0000	0.03373
367.5000	0.03419
367.0000	0.03482
366.5000	0.03522
366.0000	0.03576
365.5000	0.03612
365.0000	0.03686
364.5000	0.03705
364.0000	0.03746
363.5000	0.03765
363.0000	0.03834
362.5000	0.03891
362.0000	0.03969
361.5000	0.04002
361.0000	0.04039
360.5000	0.04058
360.0000	0.0408
359.5000	0.04102
359.0000	0.04154
358.5000	0.04187
358.0000	0.04247
357.5000	0.04265
357.0000	0.04311
356.5000	0.0433
356.0000	0.04386
355.5000	0.04439
355.0000	0.0451
354.5000	0.04532
354.0000	0.04543
353.5000	0.04561
353.0000	0.04623
352.5000	0.04664
352.0000	0.0471
351.5000	0.04737
351.0000	0.04786
350.5000	0.04815
350.0000	0.04852
349.5000	0.0489
349.0000	0.04906
348.5000	0.04916
348.0000	0.04919
347.5000	0.04909
347.0000	0.04912
346.5000	0.0488
346.0000	0.04885
345.5000	0.04872
345.0000	0.04843
344.5000	0.0481
344.0000	0.04732
343.5000	0.04683
343.0000	0.04614
342.5000	0.04548
342.0000	0.04447
341.5000	0.0434
341.0000	0.04194
340.5000	0.041
340.0000	0.0346
339.5000	0.03322
339.0000	0.03142
338.5000	0.02999
338.0000	0.02763
337.5000	0.0253
337.0000	0.02173
336.5000	0.01904
336.0000	0.01512
335.5000	0.01241
335.0000	0.00773
334.5000	0.00404
334.0000	-0.00161
333.5000	-0.00515
333.0000	-0.01067
332.5000	-0.01406
332.0000	-0.01968
331.5000	-0.02296
331.0000	-0.02824
330.5000	-0.03167
330.0000	-0.03594
329.5000	-0.03867
329.0000	-0.04272
328.5000	-0.0451
328.0000	-0.0477
327.5000	-0.04897
327.0000	-0.05149
326.5000	-0.05314
326.0000	-0.05593
325.5000	-0.0571
325.0000	-0.05947
324.5000	-0.06107
324.0000	-0.06411
323.5000	-0.06598
323.0000	-0.06901
322.5000	-0.07127
322.0000	-0.07516
321.5000	-0.07786
321.0000	-0.08237
320.5000	-0.08544
320.0000	-0.09052
319.5000	-0.09364
319.0000	-0.09903
318.5000	-0.10247
318.0000	-0.10797
317.5000	-0.11152
317.0000	-0.11688
316.5000	-0.12032
316.0000	-0.12565
315.5000	-0.12887
315.0000	-0.13305
314.5000	-0.13559
314.0000	-0.13888
313.5000	-0.14087
313.0000	-0.14295
312.5000	-0.14452
312.0000	-0.14667
311.5000	-0.1482
311.0000	-0.15019
310.5000	-0.15157
310.0000	-0.15386
309.5000	-0.15587
309.0000	-0.15938
308.5000	-0.16231
308.0000	-0.16693
307.5000	-0.17045
307.0000	-0.17701
306.5000	-0.18177
306.0000	-0.18988
305.5000	-0.19632
305.0000	-0.20689
304.5000	-0.2151
304.0000	-0.22842
303.5000	-0.23845
303.0000	-0.25497
302.5000	-0.26686
302.0000	-0.28539
301.5000	-0.2985
301.0000	-0.31988
300.5000	-0.33633
300.0000	-0.36383
