TITLE	
DATA TYPE	
ORIGIN	JASCO
OWNER	
DATE	23/05/04
TIME	10:16:23
SPECTROMETER/DATA SYSTEM	JASCO Corp., V-550, Rev. 1.00
RESOLUTION	
DELTAX	-0.5
XUNITS	NANOMETERS
YUNITS	ABSORBANCE
FIRSTX	700.0000
LASTX	300.0000
NPOINTS	801
FIRSTY	0.02586
MAXY	0.05105
MINY	-0.36249
XYDATA
700.0000	0.02586
699.5000	0.02549
699.0000	0.02492
698.5000	0.02489
698.0000	0.02476
697.5000	0.02468
697.0000	0.02459
696.5000	0.02448
696.0000	0.02446
695.5000	0.02442
695.0000	0.02443
694.5000	0.02429
694.0000	0.02421
693.5000	0.0241
693.0000	0.02404
692.5000	0.02383
692.0000	0.02375
691.5000	0.02359
691.0000	0.0236
690.5000	0.02356
690.0000	0.02353
689.5000	0.02344
689.0000	0.02339
688.5000	0.0233
688.0000	0.02328
687.5000	0.02317
687.0000	0.02309
686.5000	0.02307
686.0000	0.02314
685.5000	0.02298
685.0000	0.02291
684.5000	0.02285
684.0000	0.02281
683.5000	0.02273
683.0000	0.0227
682.5000	0.02263
682.0000	0.02262
681.5000	0.0225
681.0000	0.02253
680.5000	0.02264
680.0000	0.02232
679.5000	0.02228
679.0000	0.02223
678.5000	0.02211
678.0000	0.02208
677.5000	0.02199
677.0000	0.02198
676.5000	0.02201
676.0000	0.02207
675.5000	0.02217
675.0000	0.02213
674.5000	0.02206
674.0000	0.02197
673.5000	0.02198
673.0000	0.022
672.5000	0.02196
672.0000	0.02197
671.5000	0.02197
671.0000	0.0219
670.5000	0.0219
670.0000	0.02185
669.5000	0.02186
669.0000	0.02171
668.5000	0.02174
668.0000	0.02174
667.5000	0.02175
667.0000	0.02169
666.5000	0.02173
666.0000	0.0218
665.5000	0.02176
665.0000	0.02171
664.5000	0.02168
664.0000	0.02179
663.5000	0.02186
663.0000	0.02186
662.5000	0.02186
662.0000	0.02179
661.5000	0.02186
661.0000	0.02183
660.5000	0.02178
660.0000	0.02165
659.5000	0.02171
659.0000	0.02171
658.5000	0.02177
658.0000	0.02178
657.5000	0.02176
657.0000	0.02179
656.5000	0.02176
656.0000	0.02175
655.5000	0.02172
655.0000	0.02172
654.5000	0.02164
654.0000	0.02162
653.5000	0.02161
653.0000	0.02153
652.5000	0.02148
652.0000	0.02136
651.5000	0.02119
651.0000	0.02099
650.5000	0.02089
650.0000	0.02075
649.5000	0.02073
649.0000	0.02065
648.5000	0.02053
648.0000	0.02041
647.5000	0.02023
647.0000	0.02007
646.5000	0.01995
646.0000	0.01989
645.5000	0.01979
645.0000	0.01961
644.5000	0.01949
644.0000	0.01922
643.5000	0.01913
643.0000	0.01892
642.5000	0.01884
642.0000	0.01873
641.5000	0.01867
641.0000	0.01855
640.5000	0.0185
640.0000	0.01843
639.5000	0.01828
639.0000	0.0181
638.5000	0.01795
638.0000	0.01782
637.5000	0.01772
637.0000	0.01753
636.5000	0.01739
636.0000	0.01719
635.5000	0.01703
635.0000	0.01685
634.5000	0.01675
634.0000	0.01672
633.5000	0.01656
633.0000	0.0163
632.5000	0.01621
632.0000	0.01593
631.5000	0.01586
631.0000	0.01558
630.5000	0.01536
630.0000	0.01508
629.5000	0.01495
629.0000	0.01486
628.5000	0.0147
628.0000	0.01452
627.5000	0.0144
627.0000	0.01428
626.5000	0.01421
626.0000	0.01408
625.5000	0.01393
625.0000	0.01371
624.5000	0.01348
624.0000	0.01322
623.5000	0.01308
623.0000	0.01283
622.5000	0.01274
622.0000	0.01251
621.5000	0.01249
621.0000	0.01244
620.5000	0.01227
620.0000	0.01204
619.5000	0.01185
619.0000	0.01168
618.5000	0.01153
618.0000	0.01139
617.5000	0.01126
617.0000	0.01109
616.5000	0.01099
616.0000	0.01088
615.5000	0.01074
615.0000	0.01056
614.5000	0.01041
614.0000	0.01019
613.5000	0.01006
613.0000	0.00986
612.5000	0.00977
612.0000	0.00965
611.5000	0.0095
611.0000	0.00927
610.5000	0.00912
610.0000	0.00889
609.5000	0.0087
609.0000	0.0085
608.5000	0.00847
608.0000	0.00834
607.5000	0.00827
607.0000	0.00805
606.5000	0.00795
606.0000	0.00773
605.5000	0.00773
605.0000	0.00764
604.5000	0.00759
604.0000	0.00747
603.5000	0.00734
603.0000	0.00725
602.5000	0.00711
602.0000	0.00706
601.5000	0.00688
601.0000	0.00685
600.5000	0.00666
600.0000	0.00659
599.5000	0.00652
599.0000	0.0065
598.5000	0.0064
598.0000	0.00629
597.5000	0.00621
597.0000	0.00609
596.5000	0.00598
596.0000	0.00589
595.5000	0.00588
595.0000	0.00576
594.5000	0.0057
594.0000	0.00557
593.5000	0.00555
593.0000	0.00544
592.5000	0.00537
592.0000	0.00523
591.5000	0.00516
591.0000	0.00504
590.5000	0.00493
590.0000	0.00485
589.5000	0.00489
589.0000	0.00486
588.5000	0.00479
588.0000	0.00466
587.5000	0.00456
587.0000	0.0044
586.5000	0.00441
586.0000	0.00445
585.5000	0.00446
585.0000	0.00437
584.5000	0.00432
584.0000	0.00411
583.5000	0.00417
583.0000	0.00413
582.5000	0.00412
582.0000	0.00391
581.5000	0.00386
581.0000	0.00384
580.5000	0.00379
580.0000	0.00372
579.5000	0.00364
579.0000	0.00359
578.5000	0.0036
578.0000	0.00358
577.5000	0.00354
577.0000	0.00343
576.5000	0.0034
576.0000	0.00337
575.5000	0.00338
575.0000	0.00338
574.5000	0.00331
574.0000	0.0032
573.5000	0.00315
573.0000	0.00304
572.5000	0.00305
572.0000	0.00301
571.5000	0.00302
571.0000	0.00296
570.5000	0.00286
570.0000	0.00279
569.5000	0.00275
569.0000	0.00274
568.5000	0.0027
568.0000	0.00264
567.5000	0.00274
567.0000	0.0027
566.5000	0.00259
566.0000	0.00249
565.5000	0.00238
565.0000	0.00231
564.5000	0.00234
564.0000	0.00245
563.5000	0.00243
563.0000	0.00235
562.5000	0.0023
562.0000	0.00228
561.5000	0.00222
561.0000	0.00222
560.5000	0.00223
560.0000	0.00222
559.5000	0.00222
559.0000	0.00223
558.5000	0.00219
558.0000	0.00217
557.5000	0.00225
557.0000	0.00235
556.5000	0.00231
556.0000	0.00231
555.5000	0.0022
555.0000	0.00217
554.5000	0.00215
554.0000	0.00216
553.5000	0.00212
553.0000	0.00206
552.5000	0.00203
552.0000	0.00214
551.5000	0.00215
551.0000	0.00219
550.5000	0.00211
550.0000	0.00209
549.5000	0.00208
549.0000	0.00212
548.5000	0.00212
548.0000	0.00205
547.5000	0.00204
547.0000	0.00209
546.5000	0.00215
546.0000	0.00217
545.5000	0.00209
545.0000	0.00203
544.5000	0.00205
544.0000	0.00216
543.5000	0.00225
543.0000	0.00225
542.5000	0.00225
542.0000	0.00221
541.5000	0.00219
541.0000	0.00221
540.5000	0.00223
540.0000	0.0023
539.5000	0.00228
539.0000	0.00221
538.5000	0.00227
538.0000	0.00226
537.5000	0.00233
537.0000	0.00229
536.5000	0.00232
536.0000	0.00231
535.5000	0.00234
535.0000	0.0024
534.5000	0.00236
534.0000	0.00233
533.5000	0.00231
533.0000	0.00231
532.5000	0.00238
532.0000	0.00244
531.5000	0.00242
531.0000	0.00232
530.5000	0.00226
530.0000	0.00218
529.5000	0.00223
529.0000	0.00232
528.5000	0.00232
528.0000	0.00231
527.5000	0.00238
527.0000	0.00242
526.5000	0.00245
526.0000	0.00241
525.5000	0.0024
525.0000	0.0024
524.5000	0.00243
524.0000	0.00249
523.5000	0.00244
523.0000	0.00238
522.5000	0.00242
522.0000	0.00251
521.5000	0.00243
521.0000	0.00245
520.5000	0.00247
520.0000	0.00227
519.5000	0.00232
519.0000	0.00237
518.5000	0.00241
518.0000	0.00246
517.5000	0.00251
517.0000	0.00265
516.5000	0.00261
516.0000	0.00259
515.5000	0.00258
515.0000	0.00249
514.5000	0.00252
514.0000	0.00249
513.5000	0.0025
513.0000	0.00255
512.5000	0.00254
512.0000	0.00263
511.5000	0.00268
511.0000	0.00265
510.5000	0.00266
510.0000	0.00269
509.5000	0.00265
509.0000	0.00247
508.5000	0.00254
508.0000	0.00258
507.5000	0.00265
507.0000	0.00267
506.5000	0.00263
506.0000	0.00264
505.5000	0.00268
505.0000	0.00279
504.5000	0.00276
504.0000	0.00265
503.5000	0.00271
503.0000	0.00266
502.5000	0.00273
502.0000	0.00275
501.5000	0.00281
501.0000	0.00282
500.5000	0.00285
500.0000	0.00286
499.5000	0.00288
499.0000	0.00288
498.5000	0.00287
498.0000	0.00292
497.5000	0.00293
497.0000	0.00297
496.5000	0.00299
496.0000	0.00303
495.5000	0.00308
495.0000	0.0031
494.5000	0.00306
494.0000	0.00298
493.5000	0.003
493.0000	0.00303
492.5000	0.00317
492.0000	0.00324
491.5000	0.00319
491.0000	0.00312
490.5000	0.00315
490.0000	0.00318
489.5000	0.00324
489.0000	0.00329
488.5000	0.00333
488.0000	0.00336
487.5000	0.0034
487.0000	0.00336
486.5000	0.00341
486.0000	0.00348
485.5000	0.00354
485.0000	0.00358
484.5000	0.0036
484.0000	0.00362
483.5000	0.00364
483.0000	0.00369
482.5000	0.00373
482.0000	0.00375
481.5000	0.00381
481.0000	0.00385
480.5000	0.00387
480.0000	0.00392
479.5000	0.00407
479.0000	0.00416
478.5000	0.00423
478.0000	0.00436
477.5000	0.00439
477.0000	0.00442
476.5000	0.00443
476.0000	0.00443
475.5000	0.00437
475.0000	0.00442
474.5000	0.00447
474.0000	0.00468
473.5000	0.00472
473.0000	0.00484
472.5000	0.00486
472.0000	0.00489
471.5000	0.00494
471.0000	0.00506
470.5000	0.0051
470.0000	0.00518
469.5000	0.00522
469.0000	0.00528
468.5000	0.0053
468.0000	0.0054
467.5000	0.00542
467.0000	0.00556
466.5000	0.00572
466.0000	0.0058
465.5000	0.00586
465.0000	0.00589
464.5000	0.00596
464.0000	0.00603
463.5000	0.00608
463.0000	0.00609
462.5000	0.00612
462.0000	0.0061
461.5000	0.00621
461.0000	0.00622
460.5000	0.00632
460.0000	0.00633
459.5000	0.00649
459.0000	0.00653
458.5000	0.00659
458.0000	0.00662
457.5000	0.00663
457.0000	0.00658
456.5000	0.00657
456.0000	0.00657
455.5000	0.00666
455.0000	0.00675
454.5000	0.00681
454.0000	0.00687
453.5000	0.00683
453.0000	0.00688
452.5000	0.00689
452.0000	0.00704
451.5000	0.0071
451.0000	0.00719
450.5000	0.00713
450.0000	0.00714
449.5000	0.00713
449.0000	0.00713
448.5000	0.0071
448.0000	0.00714
447.5000	0.00729
447.0000	0.00751
446.5000	0.0076
446.0000	0.00768
445.5000	0.00778
445.0000	0.00788
444.5000	0.00785
444.0000	0.00802
443.5000	0.00814
443.0000	0.00821
442.5000	0.0083
442.0000	0.00845
441.5000	0.00863
441.0000	0.00888
440.5000	0.00902
440.0000	0.00912
439.5000	0.00923
439.0000	0.00939
438.5000	0.0095
438.0000	0.00981
437.5000	0.01
437.0000	0.01029
436.5000	0.01049
436.0000	0.01071
435.5000	0.01087
435.0000	0.01116
434.5000	0.01141
434.0000	0.01177
433.5000	0.01204
433.0000	0.01234
432.5000	0.01256
432.0000	0.01302
431.5000	0.01345
431.0000	0.01401
430.5000	0.01429
430.0000	0.01468
429.5000	0.01502
429.0000	0.01554
428.5000	0.01588
428.0000	0.01646
427.5000	0.01676
427.0000	0.01738
426.5000	0.01772
426.0000	0.0184
425.5000	0.01874
425.0000	0.01948
424.5000	0.01986
424.0000	0.02054
423.5000	0.02105
423.0000	0.02175
422.5000	0.02227
422.0000	0.02308
421.5000	0.02355
421.0000	0.02429
420.5000	0.02482
420.0000	0.02552
419.5000	0.02594
419.0000	0.02667
418.5000	0.02727
418.0000	0.02804
417.5000	0.02853
417.0000	0.02925
416.5000	0.02987
416.0000	0.03077
415.5000	0.0314
415.0000	0.03229
414.5000	0.03287
414.0000	0.03352
413.5000	0.03406
413.0000	0.03464
412.5000	0.03507
412.0000	0.03583
411.5000	0.03633
411.0000	0.03711
410.5000	0.03753
410.0000	0.03823
409.5000	0.03871
409.0000	0.03945
408.5000	0.03993
408.0000	0.04068
407.5000	0.04111
407.0000	0.04168
406.5000	0.04205
406.0000	0.04258
405.5000	0.04302
405.0000	0.04357
404.5000	0.04383
404.0000	0.04445
403.5000	0.04475
403.0000	0.04553
402.5000	0.04582
402.0000	0.04624
401.5000	0.04643
401.0000	0.04671
400.5000	0.04693
400.0000	0.04737
399.5000	0.04776
399.0000	0.04808
398.5000	0.04832
398.0000	0.0486
397.5000	0.04872
397.0000	0.04882
396.5000	0.0487
396.0000	0.04862
395.5000	0.04854
395.0000	0.04845
394.5000	0.04849
394.0000	0.04843
393.5000	0.04844
393.0000	0.04823
392.5000	0.04812
392.0000	0.04774
391.5000	0.04765
391.0000	0.04727
390.5000	0.04716
390.0000	0.04667
389.5000	0.04638
389.0000	0.0458
388.5000	0.04563
388.0000	0.04529
387.5000	0.04503
387.0000	0.04453
386.5000	0.0442
386.0000	0.04357
385.5000	0.04302
385.0000	0.04226
384.5000	0.04191
384.0000	0.04129
383.5000	0.04068
383.0000	0.03989
382.5000	0.03937
382.0000	0.0386
381.5000	0.03802
381.0000	0.03726
380.5000	0.03681
380.0000	0.03613
379.5000	0.0356
379.0000	0.03499
378.5000	0.03453
378.0000	0.03398
377.5000	0.03369
377.0000	0.03316
376.5000	0.0328
376.0000	0.03235
375.5000	0.0322
375.0000	0.03196
374.5000	0.03191
374.0000	0.03185
373.5000	0.03186
373.0000	0.03191
372.5000	0.03203
372.0000	0.03233
371.5000	0.03245
371.0000	0.03271
370.5000	0.033
370.0000	0.03357
369.5000	0.03352
369.0000	0.03392
368.5000	0.03421
368.0000	0.03488
367.5000	0.03562
367.0000	0.03644
366.5000	0.03688
366.0000	0.03732
365.5000	0.03792
365.0000	0.03847
364.5000	0.03882
364.0000	0.0392
363.5000	0.03949
363.0000	0.03989
362.5000	0.04036
362.0000	0.04066
361.5000	0.04105
361.0000	0.04146
360.5000	0.04179
360.0000	0.0423
359.5000	0.04258
359.0000	0.04302
358.5000	0.04347
358.0000	0.04408
357.5000	0.04443
357.0000	0.04479
356.5000	0.04504
356.0000	0.04547
355.5000	0.04576
355.0000	0.04642
354.5000	0.04684
354.0000	0.04737
353.5000	0.04752
353.0000	0.04802
352.5000	0.04839
352.0000	0.04921
351.5000	0.04948
351.0000	0.0498
350.5000	0.04974
350.0000	0.04992
349.5000	0.04994
349.0000	0.0504
348.5000	0.05062
348.0000	0.0508
347.5000	0.05105
347.0000	0.05101
346.5000	0.05061
346.0000	0.05032
345.5000	0.05025
345.0000	0.05003
344.5000	0.04974
344.0000	0.04929
343.5000	0.04888
343.0000	0.04815
342.5000	0.04724
342.0000	0.04622
341.5000	0.04537
341.0000	0.04406
340.5000	0.04281
340.0000	0.03617
339.5000	0.03497
339.0000	0.03319
338.5000	0.03177
338.0000	0.02917
337.5000	0.02685
337.0000	0.02307
336.5000	0.02016
336.0000	0.01594
335.5000	0.01318
335.0000	0.00906
334.5000	0.00556
334.0000	0.00064
333.5000	-0.00299
333.0000	-0.00895
332.5000	-0.01255
332.0000	-0.01815
331.5000	-0.02152
331.0000	-0.02655
330.5000	-0.02961
330.0000	-0.03386
329.5000	-0.0367
329.0000	-0.04084
328.5000	-0.04302
328.0000	-0.04585
327.5000	-0.04745
327.0000	-0.04966
326.5000	-0.05134
326.0000	-0.0538
325.5000	-0.0553
325.0000	-0.05781
324.5000	-0.0592
324.0000	-0.06198
323.5000	-0.06397
323.0000	-0.06776
322.5000	-0.07004
322.0000	-0.07383
321.5000	-0.07649
321.0000	-0.08075
320.5000	-0.08383
320.0000	-0.08872
319.5000	-0.09219
319.0000	-0.0977
318.5000	-0.10114
318.0000	-0.10661
317.5000	-0.11043
317.0000	-0.11593
316.5000	-0.1195
316.0000	-0.12447
315.5000	-0.12746
315.0000	-0.13149
314.5000	-0.13431
314.0000	-0.13766
313.5000	-0.13971
313.0000	-0.14195
312.5000	-0.14349
312.0000	-0.14529
311.5000	-0.14673
311.0000	-0.14897
310.5000	-0.15026
310.0000	-0.15275
309.5000	-0.15446
309.0000	-0.15811
308.5000	-0.16079
308.0000	-0.16575
307.5000	-0.16937
307.0000	-0.17598
306.5000	-0.1805
306.0000	-0.18884
305.5000	-0.19507
305.0000	-0.20598
304.5000	-0.21413
304.0000	-0.22749
303.5000	-0.23733
303.0000	-0.25334
302.5000	-0.26481
302.0000	-0.28372
301.5000	-0.29706
301.0000	-0.31911
300.5000	-0.33494
300.0000	-0.36249
