TITLE	
DATA TYPE	
ORIGIN	JASCO
OWNER	
DATE	23/05/04
TIME	09:39:54
SPECTROMETER/DATA SYSTEM	JASCO Corp., V-550, Rev. 1.00
RESOLUTION	
DELTAX	-0.5
XUNITS	NANOMETERS
YUNITS	ABSORBANCE
FIRSTX	700.0000
LASTX	300.0000
NPOINTS	801
FIRSTY	0.00190
MAXY	1.28798
MINY	0.00032
XYDATA
700.0000	0.0019
699.5000	0.00154
699.0000	0.00112
698.5000	0.00107
698.0000	0.00108
697.5000	0.00113
697.0000	0.00118
696.5000	0.00121
696.0000	0.0012
695.5000	0.00128
695.0000	0.0014
694.5000	0.00147
694.0000	0.00154
693.5000	0.00161
693.0000	0.00174
692.5000	0.00183
692.0000	0.002
691.5000	0.0021
691.0000	0.00229
690.5000	0.00226
690.0000	0.00236
689.5000	0.00251
689.0000	0.00287
688.5000	0.00279
688.0000	0.00282
687.5000	0.00276
687.0000	0.00278
686.5000	0.00266
686.0000	0.00251
685.5000	0.00239
685.0000	0.00238
684.5000	0.00228
684.0000	0.00221
683.5000	0.00214
683.0000	0.002
682.5000	0.00186
682.0000	0.0018
681.5000	0.00173
681.0000	0.00187
680.5000	0.00176
680.0000	0.00111
679.5000	0.00076
679.0000	0.00045
678.5000	0.00032
678.0000	0.00032
677.5000	0.00036
677.0000	0.00043
676.5000	0.00047
676.0000	0.00049
675.5000	0.0005
675.0000	0.00056
674.5000	0.00058
674.0000	0.00056
673.5000	0.00047
673.0000	0.00043
672.5000	0.00046
672.0000	0.00057
671.5000	0.00056
671.0000	0.00054
670.5000	0.0005
670.0000	0.00042
669.5000	0.00041
669.0000	0.00045
668.5000	0.00051
668.0000	0.00048
667.5000	0.00044
667.0000	0.00036
666.5000	0.00046
666.0000	0.00057
665.5000	0.00055
665.0000	0.00053
664.5000	0.00051
664.0000	0.00063
663.5000	0.00061
663.0000	0.00057
662.5000	0.00049
662.0000	0.00053
661.5000	0.00059
661.0000	0.00062
660.5000	0.00053
660.0000	0.00054
659.5000	0.00057
659.0000	0.00064
658.5000	0.0006
658.0000	0.00054
657.5000	0.00057
657.0000	0.00062
656.5000	0.0007
656.0000	0.00084
655.5000	0.00075
655.0000	0.00064
654.5000	0.00065
654.0000	0.00061
653.5000	0.00061
653.0000	0.00063
652.5000	0.00073
652.0000	0.00075
651.5000	0.0008
651.0000	0.00085
650.5000	0.00085
650.0000	0.00089
649.5000	0.00089
649.0000	0.00083
648.5000	0.00078
648.0000	0.00067
647.5000	0.0007
647.0000	0.00074
646.5000	0.00077
646.0000	0.00084
645.5000	0.00096
645.0000	0.00108
644.5000	0.00103
644.0000	0.00096
643.5000	0.00097
643.0000	0.00097
642.5000	0.00103
642.0000	0.00106
641.5000	0.00106
641.0000	0.00102
640.5000	0.00101
640.0000	0.001
639.5000	0.00113
639.0000	0.00116
638.5000	0.00114
638.0000	0.00117
637.5000	0.0012
637.0000	0.00123
636.5000	0.00114
636.0000	0.00119
635.5000	0.00123
635.0000	0.00131
634.5000	0.00125
634.0000	0.00121
633.5000	0.00132
633.0000	0.00131
632.5000	0.00133
632.0000	0.0013
631.5000	0.00138
631.0000	0.00145
630.5000	0.0014
630.0000	0.00139
629.5000	0.0014
629.0000	0.0015
628.5000	0.00146
628.0000	0.00148
627.5000	0.00152
627.0000	0.00158
626.5000	0.00159
626.0000	0.00164
625.5000	0.00166
625.0000	0.00181
624.5000	0.00185
624.0000	0.00192
623.5000	0.00186
623.0000	0.00184
622.5000	0.00197
622.0000	0.00203
621.5000	0.00203
621.0000	0.00196
620.5000	0.00206
620.0000	0.00211
619.5000	0.00218
619.0000	0.00207
618.5000	0.00209
618.0000	0.00207
617.5000	0.00212
617.0000	0.00222
616.5000	0.00228
616.0000	0.00233
615.5000	0.00238
615.0000	0.00237
614.5000	0.00238
614.0000	0.0024
613.5000	0.00242
613.0000	0.00245
612.5000	0.00253
612.0000	0.00266
611.5000	0.00267
611.0000	0.00264
610.5000	0.00269
610.0000	0.00282
609.5000	0.00289
609.0000	0.00295
608.5000	0.00293
608.0000	0.00281
607.5000	0.00289
607.0000	0.00301
606.5000	0.00307
606.0000	0.00315
605.5000	0.00312
605.0000	0.0032
604.5000	0.00329
604.0000	0.00346
603.5000	0.00347
603.0000	0.00341
602.5000	0.00346
602.0000	0.00355
601.5000	0.00358
601.0000	0.00362
600.5000	0.00372
600.0000	0.00388
599.5000	0.00392
599.0000	0.004
598.5000	0.00414
598.0000	0.00422
597.5000	0.00428
597.0000	0.00434
596.5000	0.00441
596.0000	0.00455
595.5000	0.00466
595.0000	0.00473
594.5000	0.00481
594.0000	0.00488
593.5000	0.00498
593.0000	0.00505
592.5000	0.00511
592.0000	0.00517
591.5000	0.0052
591.0000	0.00529
590.5000	0.00543
590.0000	0.00567
589.5000	0.00571
589.0000	0.00576
588.5000	0.00587
588.0000	0.00606
587.5000	0.00626
587.0000	0.00644
586.5000	0.00653
586.0000	0.00666
585.5000	0.00688
585.0000	0.00707
584.5000	0.00715
584.0000	0.00734
583.5000	0.00748
583.0000	0.00788
582.5000	0.00794
582.0000	0.00813
581.5000	0.00832
581.0000	0.00865
580.5000	0.00873
580.0000	0.00895
579.5000	0.0092
579.0000	0.00947
578.5000	0.00958
578.0000	0.00982
577.5000	0.01007
577.0000	0.01045
576.5000	0.01067
576.0000	0.011
575.5000	0.01124
575.0000	0.0117
574.5000	0.01197
574.0000	0.01242
573.5000	0.01269
573.0000	0.01305
572.5000	0.01338
572.0000	0.01394
571.5000	0.01431
571.0000	0.01488
570.5000	0.01516
570.0000	0.01569
569.5000	0.01612
569.0000	0.01671
568.5000	0.01715
568.0000	0.01775
567.5000	0.0183
567.0000	0.01911
566.5000	0.01958
566.0000	0.02034
565.5000	0.02084
565.0000	0.02172
564.5000	0.02241
564.0000	0.02336
563.5000	0.02396
563.0000	0.02491
562.5000	0.02562
562.0000	0.02673
561.5000	0.02753
561.0000	0.02869
560.5000	0.02952
560.0000	0.03067
559.5000	0.03148
559.0000	0.0328
558.5000	0.03379
558.0000	0.03535
557.5000	0.03635
557.0000	0.03789
556.5000	0.03895
556.0000	0.04062
555.5000	0.04179
555.0000	0.0436
554.5000	0.04479
554.0000	0.0466
553.5000	0.04796
553.0000	0.05012
552.5000	0.05156
552.0000	0.05378
551.5000	0.05532
551.0000	0.05767
550.5000	0.05938
550.0000	0.06194
549.5000	0.06376
549.0000	0.06651
548.5000	0.06841
548.0000	0.07141
547.5000	0.07341
547.0000	0.0766
546.5000	0.07876
546.0000	0.08206
545.5000	0.08439
545.0000	0.088
544.5000	0.09037
544.0000	0.09406
543.5000	0.09662
543.0000	0.10059
542.5000	0.10334
542.0000	0.10761
541.5000	0.1106
541.0000	0.1152
540.5000	0.11823
540.0000	0.12296
539.5000	0.12616
539.0000	0.13117
538.5000	0.13462
538.0000	0.1399
537.5000	0.14345
537.0000	0.14897
536.5000	0.15284
536.0000	0.15877
535.5000	0.16283
535.0000	0.16906
534.5000	0.17328
534.0000	0.17975
533.5000	0.18417
533.0000	0.19096
532.5000	0.19563
532.0000	0.20276
531.5000	0.2077
531.0000	0.21518
530.5000	0.22033
530.0000	0.22827
529.5000	0.23359
529.0000	0.24175
528.5000	0.24734
528.0000	0.25579
527.5000	0.26153
527.0000	0.27025
526.5000	0.27624
526.0000	0.28532
525.5000	0.29146
525.0000	0.30084
524.5000	0.30726
524.0000	0.31704
523.5000	0.3236
523.0000	0.33373
522.5000	0.34061
522.0000	0.35096
521.5000	0.35795
521.0000	0.36864
520.5000	0.37587
520.0000	0.38677
519.5000	0.39404
519.0000	0.40511
518.5000	0.41285
518.0000	0.42451
517.5000	0.43215
517.0000	0.44396
516.5000	0.4519
516.0000	0.46411
515.5000	0.47215
515.0000	0.48442
514.5000	0.49256
514.0000	0.50501
513.5000	0.51337
513.0000	0.52613
512.5000	0.53472
512.0000	0.54776
511.5000	0.55625
511.0000	0.5692
510.5000	0.57785
510.0000	0.5911
509.5000	0.59989
509.0000	0.6132
508.5000	0.62206
508.0000	0.63537
507.5000	0.64412
507.0000	0.65731
506.5000	0.66626
506.0000	0.67957
505.5000	0.68841
505.0000	0.7016
504.5000	0.71049
504.0000	0.72372
503.5000	0.73268
503.0000	0.74584
502.5000	0.7544
502.0000	0.76729
501.5000	0.776
501.0000	0.78901
500.5000	0.79751
500.0000	0.81027
499.5000	0.8188
499.0000	0.83148
498.5000	0.83979
498.0000	0.85195
497.5000	0.85996
497.0000	0.87199
496.5000	0.87983
496.0000	0.8916
495.5000	0.89916
495.0000	0.91044
494.5000	0.91783
494.0000	0.92885
493.5000	0.93598
493.0000	0.94651
492.5000	0.95327
492.0000	0.96312
491.5000	0.96966
491.0000	0.97929
490.5000	0.98543
490.0000	0.99455
489.5000	1.00045
489.0000	1.00893
488.5000	1.01437
488.0000	1.02247
487.5000	1.02771
487.0000	1.03534
486.5000	1.04014
486.0000	1.04708
485.5000	1.05158
485.0000	1.05782
484.5000	1.0618
484.0000	1.06747
483.5000	1.07115
483.0000	1.07636
482.5000	1.07958
482.0000	1.08412
481.5000	1.08671
481.0000	1.09034
480.5000	1.09257
480.0000	1.09562
479.5000	1.09748
479.0000	1.09985
478.5000	1.10148
478.0000	1.10338
477.5000	1.10424
477.0000	1.10517
476.5000	1.10561
476.0000	1.10608
475.5000	1.10613
475.0000	1.10596
474.5000	1.10556
474.0000	1.10456
473.5000	1.10352
473.0000	1.10182
472.5000	1.10054
472.0000	1.09839
471.5000	1.0966
471.0000	1.09388
470.5000	1.09162
470.0000	1.08796
469.5000	1.08512
469.0000	1.08096
468.5000	1.07807
468.0000	1.07333
467.5000	1.06999
467.0000	1.06438
466.5000	1.0606
466.0000	1.05467
465.5000	1.05052
465.0000	1.04384
464.5000	1.03918
464.0000	1.03219
463.5000	1.02741
463.0000	1.0197
462.5000	1.0145
462.0000	1.00613
461.5000	1.00075
461.0000	0.99218
460.5000	0.98646
460.0000	0.9774
459.5000	0.97131
459.0000	0.96165
458.5000	0.95516
458.0000	0.94533
457.5000	0.93874
457.0000	0.92863
456.5000	0.92169
456.0000	0.91116
455.5000	0.90411
455.0000	0.89326
454.5000	0.88587
454.0000	0.87471
453.5000	0.8671
453.0000	0.85571
452.5000	0.848
452.0000	0.83637
451.5000	0.82846
451.0000	0.81659
450.5000	0.80874
450.0000	0.79672
449.5000	0.78862
449.0000	0.77643
448.5000	0.76833
448.0000	0.75631
447.5000	0.74816
447.0000	0.73592
446.5000	0.72764
446.0000	0.7154
445.5000	0.70716
445.0000	0.6949
444.5000	0.68677
444.0000	0.67439
443.5000	0.66606
443.0000	0.65377
442.5000	0.64569
442.0000	0.63342
441.5000	0.62525
441.0000	0.61284
440.5000	0.60469
440.0000	0.59244
439.5000	0.58476
439.0000	0.57273
438.5000	0.56481
438.0000	0.55278
437.5000	0.54488
437.0000	0.53302
436.5000	0.52537
436.0000	0.51385
435.5000	0.5064
435.0000	0.49491
434.5000	0.48751
434.0000	0.47622
433.5000	0.46882
433.0000	0.45769
432.5000	0.45038
432.0000	0.43956
431.5000	0.43245
431.0000	0.42194
430.5000	0.41496
430.0000	0.40472
429.5000	0.39793
429.0000	0.38773
428.5000	0.38109
428.0000	0.37124
427.5000	0.36487
427.0000	0.35559
426.5000	0.34949
426.0000	0.34045
425.5000	0.33443
425.0000	0.32557
424.5000	0.31985
424.0000	0.31124
423.5000	0.30556
423.0000	0.29695
422.5000	0.29143
422.0000	0.28323
421.5000	0.27789
421.0000	0.27013
420.5000	0.26496
420.0000	0.25646
419.5000	0.25154
419.0000	0.24428
418.5000	0.23948
418.0000	0.23238
417.5000	0.22778
417.0000	0.22094
416.5000	0.21648
416.0000	0.20983
415.5000	0.20562
415.0000	0.19952
414.5000	0.19529
414.0000	0.18918
413.5000	0.18531
413.0000	0.17938
412.5000	0.17561
412.0000	0.17006
411.5000	0.16664
411.0000	0.16155
410.5000	0.15822
410.0000	0.15333
409.5000	0.15006
409.0000	0.14546
408.5000	0.14241
408.0000	0.13811
407.5000	0.13523
407.0000	0.13109
406.5000	0.12847
406.0000	0.12478
405.5000	0.12246
405.0000	0.11899
404.5000	0.11674
404.0000	0.11341
403.5000	0.11122
403.0000	0.10809
402.5000	0.10622
402.0000	0.10362
401.5000	0.10189
401.0000	0.09944
400.5000	0.09812
400.0000	0.09619
399.5000	0.09488
399.0000	0.09325
398.5000	0.0922
398.0000	0.09092
397.5000	0.09029
397.0000	0.08904
396.5000	0.08811
396.0000	0.08707
395.5000	0.08674
395.0000	0.08669
394.5000	0.08664
394.0000	0.08675
393.5000	0.08689
393.0000	0.08747
392.5000	0.08796
392.0000	0.08878
391.5000	0.08941
391.0000	0.09076
390.5000	0.09187
390.0000	0.09383
389.5000	0.09517
389.0000	0.09738
388.5000	0.09935
388.0000	0.10226
387.5000	0.10425
387.0000	0.10738
386.5000	0.10972
386.0000	0.11375
385.5000	0.11668
385.0000	0.12127
384.5000	0.12449
384.0000	0.12967
383.5000	0.13329
383.0000	0.13903
382.5000	0.14303
382.0000	0.14937
381.5000	0.15388
381.0000	0.1609
380.5000	0.16587
380.0000	0.1738
379.5000	0.17937
379.0000	0.18804
378.5000	0.1939
378.0000	0.20323
377.5000	0.20961
377.0000	0.21973
376.5000	0.22691
376.0000	0.2379
375.5000	0.24556
375.0000	0.25731
374.5000	0.2653
374.0000	0.27766
373.5000	0.28628
373.0000	0.29973
372.5000	0.30911
372.0000	0.32323
371.5000	0.33273
371.0000	0.34726
370.5000	0.35712
370.0000	0.37276
369.5000	0.38313
369.0000	0.39897
368.5000	0.40969
368.0000	0.42618
367.5000	0.43776
367.0000	0.45489
366.5000	0.46612
366.0000	0.48305
365.5000	0.49481
365.0000	0.5126
364.5000	0.52464
364.0000	0.54239
363.5000	0.55399
363.0000	0.57144
362.5000	0.58334
362.0000	0.60077
361.5000	0.61271
361.0000	0.63009
360.5000	0.64183
360.0000	0.65909
359.5000	0.67018
359.0000	0.68688
358.5000	0.69801
358.0000	0.71445
357.5000	0.72551
357.0000	0.74133
356.5000	0.75164
356.0000	0.76663
355.5000	0.77647
355.0000	0.79125
354.5000	0.80054
354.0000	0.81451
353.5000	0.82312
353.0000	0.83592
352.5000	0.84395
352.0000	0.85611
351.5000	0.86366
351.0000	0.87432
350.5000	0.88059
350.0000	0.88936
349.5000	0.89464
349.0000	0.90229
348.5000	0.90717
348.0000	0.91375
347.5000	0.91745
347.0000	0.92187
346.5000	0.92443
346.0000	0.9277
345.5000	0.92941
345.0000	0.9306
344.5000	0.9307
344.0000	0.93096
343.5000	0.93058
343.0000	0.92873
342.5000	0.92733
342.0000	0.92338
341.5000	0.92098
341.0000	0.9155
340.5000	0.91169
340.0000	0.90097
339.5000	0.8957
339.0000	0.88776
338.5000	0.88201
338.0000	0.87249
337.5000	0.86604
337.0000	0.85634
336.5000	0.8485
336.0000	0.8356
335.5000	0.82646
335.0000	0.81265
334.5000	0.80283
334.0000	0.78852
333.5000	0.77878
333.0000	0.76325
332.5000	0.75298
332.0000	0.73725
331.5000	0.72672
331.0000	0.71034
330.5000	0.69978
330.0000	0.68319
329.5000	0.67174
329.0000	0.65491
328.5000	0.6442
328.0000	0.62867
327.5000	0.61833
327.0000	0.60245
326.5000	0.59206
326.0000	0.57596
325.5000	0.56585
325.0000	0.55033
324.5000	0.54055
324.0000	0.52648
323.5000	0.51695
323.0000	0.50287
322.5000	0.49335
322.0000	0.47998
321.5000	0.47127
321.0000	0.45896
320.5000	0.45079
320.0000	0.4387
319.5000	0.43116
319.0000	0.4204
318.5000	0.41372
318.0000	0.40444
317.5000	0.39876
317.0000	0.39156
316.5000	0.38739
316.0000	0.38221
315.5000	0.37949
315.0000	0.37656
314.5000	0.37589
314.0000	0.37625
313.5000	0.37782
313.0000	0.38144
312.5000	0.3853
312.0000	0.39207
311.5000	0.39751
311.0000	0.40836
310.5000	0.41738
310.0000	0.43285
309.5000	0.44456
309.0000	0.46444
308.5000	0.47921
308.0000	0.50421
307.5000	0.52248
307.0000	0.553
306.5000	0.57546
306.0000	0.61271
305.5000	0.64002
305.0000	0.68496
304.5000	0.71737
304.0000	0.77109
303.5000	0.80985
303.0000	0.87313
302.5000	0.91815
302.0000	0.99068
301.5000	1.0437
301.0000	1.12884
300.5000	1.19075
300.0000	1.28798
